#Voltage(V) #Current(nA)
  0.00   -0.89176630
  0.50    0.78146890
  1.00    0.45588890
  1.50    1.18741400
  2.00    1.42438700
  2.50    3.40465500
  3.00    2.17239700
  3.50    1.43262900
  4.00    2.35373300
  4.50    2.66282700
  5.00    2.42173300
  5.50   -0.44048700
  6.00    3.18004600
  6.50    3.80853900
  7.00    3.60453700
  7.50    1.74378500
  8.00    0.33019010
  8.50    3.59423400
  9.00    2.27542800
  9.50    3.50768600
 10.00    4.46588000
 10.50    5.29631600
 11.00    4.64103400
 11.50    4.70285300
 12.00    3.95278300
 12.50    4.62042700
 13.00    2.59276500
 13.50    4.95631200
 14.00    4.64309500
 14.50    5.30249800
 15.00    5.54565300
 15.50    6.38226800
 16.00    5.74347000
 16.50    5.64044000
 17.00    5.54977200
 17.50    6.15559600
 18.00    5.66310700
 18.50    6.27717500
 19.00    6.54711700
 19.50    6.25450800
 20.00    6.49766200
 20.50    6.52857200
 21.00    6.21329500
 21.50    6.79645300
 22.00    7.30336900
 22.50    7.13027800
 23.00    7.27040000
 23.50    7.16736600
 24.00    7.61864700
 24.50    7.76494900
 25.00    7.72992000
 25.50    7.88240500
 26.00    7.99161900
 26.50    8.04931600
 27.00    8.42641200
 27.50    8.29247200
 28.00    8.41198600
 28.50    8.45938100
 29.00    8.21210600
 29.50    9.50824000
 30.00    9.08374900
 30.50    9.16411300
 31.00    8.43877100
 31.50    9.33720600
 32.00    9.97806100
 32.50    9.59066800
 33.00    9.16411200
 33.50    9.25684400
 34.00    9.67102900
 34.50   10.36134000
 35.00   10.17589000
 35.50   10.05637000
 36.00   10.23976000
 36.50   10.22122000
 37.00   10.69104000
 37.50   10.41491000
 38.00   10.46643000
 38.50   10.92183000
 39.00   11.24329000
 39.50   10.76316000
 40.00   11.11553000
 40.50   11.64923000
 41.00   10.45819000
 41.50   11.39577000
 42.00   11.75433000
 42.50   11.68220000
 43.00   11.65335000
 43.50   11.40814000
 44.00   12.34572000
 44.50   11.42874000
 45.00   12.46524000
 45.50   12.06960000
 46.00   11.50704000
 46.50   12.39312000
 47.00   12.80730000
 47.50   12.94537000
 48.00   13.59447000
 48.50   13.07931000
 49.00   13.11228000
 49.50   11.98923000
 50.00   13.26476000
 50.50   13.69955000
 51.00   13.65628000
 51.50   13.67071000
 52.00   13.31834000
 52.50   14.11992000
 53.00   15.74370000
 53.50   22.59941000
 54.00   30.80896000
 54.50   43.26548000
 55.00   56.19180000
 55.50   74.04713000
 56.00   92.55986000
 56.50  113.33510000
 57.00  139.64940000
 57.50  167.77900000
 58.00  204.57560000
 58.50  241.73700000
 59.00  290.62950000
 59.50  348.87950000
 60.00  417.47780000
 60.00  418.72240000
