Voltage(V) Current(nA)
  0.00   41.58051000
  1.00   42.64171000
  2.00   43.97903000
  3.00   44.33963000
  4.00   46.48470000
  5.00   44.83211000
  6.00   45.76762000
  7.00   45.73671000
  8.00   49.34274000
  9.00   46.78143000
 10.00   46.96070000
 11.00   47.02252000
 12.00   48.51644000
 13.00   47.93742000
 14.00   49.39425000
 15.00   48.74517000
 16.00   48.94711000
 17.00   48.92856000
 18.00   49.05220000
 19.00   49.76928000
 20.00   49.53643000
 21.00   50.06807000
 22.00   47.39136000
 23.00   50.38333000
 24.00   51.04891000
 25.00   51.55169000
 26.00   53.95639000
 27.00   52.06683000
 28.00   52.06889000
 29.00   51.52284000
 30.00   51.89993000
 31.00   55.20305000
 32.00   52.02562000
 33.00   53.15482000
 34.00   51.28381000
 35.00   53.61434000
 36.00   53.70500000
 37.00   54.20985000
 38.00   54.54366000
 39.00   52.87870000
 40.00   54.56426000
 41.00   55.22159000
 42.00   55.45032000
 43.00   55.44208000
 44.00   56.02728000
 45.00   56.60631000
 46.00   56.29928000
 47.00   56.39407000
 48.00   57.32958000
 49.00   58.42169000
 50.00   57.22448000
 51.00   57.37078000
 52.00   64.02854000
 53.00  2973.73200000
 54.00   75.02179000
 55.00  29699.13000000
 56.00  161902.50000000
 57.00  98999999999999988926107162687274015908859740160.00000000
 58.00  98999999999999988926107162687274015908859740160.00000000
 59.00  98999999999999988926107162687274015908859740160.00000000
 60.00  98999999999999988926107162687274015908859740160.00000000
 60.00  98999999999999988926107162687274015908859740160.00000000
