#Voltage(V) #Current(nA)
  0.00   38.93678000
  0.50   41.18488000
  1.00   42.25638000
  1.50   41.39918000
  2.00   44.06558000
  2.50   41.71033000
  3.00   43.47213000
  3.50   43.79770000
  4.00   44.21188000
  4.50   43.88425000
  5.00   44.42618000
  5.50   44.51685000
  6.00   45.99222000
  6.50   44.25927000
  7.00   45.88095000
  7.50   45.23599000
  8.00   45.66459000
  8.50   45.53065000
  9.00   46.20858000
  9.50   46.15089000
 10.00   46.25804000
 10.50   46.36519000
 11.00   46.51973000
 11.50   47.13585000
 12.00   46.82058000
 12.50   47.37900000
 13.00   45.71404000
 13.50   47.71281000
 14.00   47.51293000
 14.50   46.13646000
 15.00   47.59124000
 15.50   48.04250000
 16.00   47.56239000
 16.50   47.83851000
 17.00   47.79935000
 17.50   49.01304000
 18.00   47.93742000
 18.50   49.03571000
 19.00   49.11195000
 19.50   49.16758000
 20.00   49.24795000
 20.50   49.32831000
 21.00   49.20261000
 21.50   49.38601000
 22.00   49.71570000
 22.50   49.41280000
 23.00   49.81461000
 23.50   49.58794000
 24.00   49.80225000
 24.50   49.96709000
 25.00   50.23291000
 25.50   49.52613000
 26.00   50.38951000
 26.50   50.45957000
 27.00   50.87375000
 27.50   51.01593000
 28.00   50.89229000
 28.50   51.29411000
 29.00   51.30235000
 29.50   51.26732000
 30.00   51.51459000
 30.50   51.50017000
 31.00   51.82368000
 31.50   51.88137000
 32.00   51.92464000
 32.50   52.21107000
 33.00   52.06477000
 33.50   52.04829000
 34.00   52.36767000
 34.50   52.49955000
 35.00   52.67058000
 35.50   52.56137000
 36.00   53.27433000
 36.50   53.03530000
 37.00   52.87252000
 37.50   53.20221000
 38.00   53.47421000
 38.50   52.98379000
 39.00   53.31554000
 39.50   54.15420000
 40.00   53.69469000
 40.50   53.87808000
 41.00   54.83213000
 41.50   54.29020000
 42.00   54.48596000
 42.50   53.81008000
 43.00   55.24425000
 43.50   55.79443000
 44.00   54.53129000
 44.50   55.26898000
 45.00   56.00667000
 45.50   54.83420000
 46.00   55.74498000
 46.50   56.42703000
 47.00   56.51358000
 47.50   55.54097000
 48.00   58.34544000
 48.50   56.90715000
 49.00   56.26837000
 49.50   56.21067000
 50.00   58.55355000
 50.50   57.10909000
 51.00   56.52800000
 51.50   58.21356000
 52.00   63.22902000
 52.50   56.70727000
 53.00  1499.26500000
 53.50  19897.42000000
 54.00  7081.29300000
 54.50   86.00261000
 55.00  71094.66000000
 55.50  65664.62000000
 56.00  138.77830000
 56.50  61078.06000000
 57.00  98999999999999988926107162687274015908859740160.00000000
 57.50  98999999999999988926107162687274015908859740160.00000000
 58.00  98999999999999988926107162687274015908859740160.00000000
 58.50  98999999999999988926107162687274015908859740160.00000000
 59.00  98999999999999988926107162687274015908859740160.00000000
 59.50  98999999999999988926107162687274015908859740160.00000000
 60.00  98999999999999988926107162687274015908859740160.00000000
 60.00  98999999999999988926107162687274015908859740160.00000000
