#Voltage(V) #Current(nA)
  0.00   42.28523000
  0.50   42.10596000
  1.00   43.89248000
  1.50   43.63903000
  2.00   44.77442000
  2.50   44.21600000
  3.00   44.82593000
  3.50   45.47708000
  4.00   45.13914000
  4.50   46.59598000
  5.00   45.71404000
  5.50   46.01283000
  6.00   44.44266000
  6.50   45.75937000
  7.00   45.43999000
  7.50   46.28689000
  8.00   47.32954000
  8.50   47.23888000
  9.00   45.51623000
  9.50   46.21064000
 10.00   47.23476000
 10.50   46.47646000
 11.00   47.83850000
 11.50   47.59536000
 12.00   47.91475000
 12.50   47.73754000
 13.00   47.56239000
 13.50   48.12699000
 14.00   48.28359000
 14.50   48.12081000
 15.00   48.37014000
 15.50   48.64832000
 16.00   48.64626000
 16.50   48.91825000
 17.00   48.57208000
 17.50   48.56177000
 18.00   48.85231000
 18.50   48.92856000
 19.00   49.28916000
 19.50   49.14698000
 20.00   49.37364000
 20.50   49.59412000
 21.00   49.48286000
 21.50   50.06394000
 22.00   50.20406000
 22.50   49.84345000
 23.00   50.19788000
 23.50   50.54200000
 24.00   50.53375000
 24.50   50.42660000
 25.00   50.56672000
 25.50   50.86345000
 26.00   50.87787000
 26.50   51.05508000
 27.00   51.25084000
 27.50   51.27968000
 28.00   51.19932000
 28.50   51.78659000
 29.00   51.57435000
 29.50   51.64647000
 30.00   51.88550000
 30.50   52.01325000
 31.00   52.05652000
 31.50   52.32852000
 32.00   52.40270000
 32.50   51.61968000
 33.00   52.70973000
 33.50   52.50779000
 34.00   52.71798000
 34.50   53.00233000
 35.00   52.74682000
 35.50   53.22488000
 36.00   52.83542000
 36.50   51.79689000
 37.00   53.04561000
 37.50   53.01470000
 38.00   54.54571000
 38.50   53.60815000
 39.00   54.20777000
 39.50   53.14864000
 40.00   54.08620000
 40.50   54.64874000
 41.00   56.80205000
 41.50   54.10268000
 42.00   54.42826000
 42.50   54.55189000
 43.00   55.72849000
 43.50   54.85068000
 44.00   55.30195000
 44.50   55.03613000
 45.00   55.40086000
 45.50   55.99636000
 46.00   55.56158000
 46.50   55.81298000
 47.00   55.80679000
 47.50   55.90982000
 48.00   57.35429000
 48.50   56.29309000
 49.00   56.38582000
 49.50   57.26774000
 50.00   56.47030000
 50.50   58.98009000
 51.00   56.11588000
 51.50   56.99987000
 52.00   66.93807000
 52.50   58.71428000
 53.00  5127.78300000
 53.50   64.64052000
 54.00   73.51134000
 54.50  67059.85000000
 55.00   99.61278000
 55.50  110729.80000000
 56.00  138.51660000
 56.50  159.77770000
 57.00  98999999999999988926107162687274015908859740160.00000000
 57.50  220.40230000
 58.00  260.34460000
 58.50  319.87080000
 59.00  358.71900000
 59.50  98999999999999988926107162687274015908859740160.00000000
 60.00  507.85800000
 60.00  494.33020000
