Voltage(V) Current(nA)
  0.00   43.37734000
  0.50   42.47687000
  1.00   43.85127000
  1.50   43.83067000
  2.00   45.46265000
  2.50   45.15356000
  3.00   41.34767000
  3.50   44.96605000
  4.00   49.11194000
  4.50   47.76020000
  5.00   43.22486000
  5.50   43.25989000
  6.00   46.39403000
  6.50   45.97573000
  7.00   45.85622000
  7.50   46.69900000
  8.00   46.91536000
  8.50   51.48367000
  9.00   51.47748000
  9.50   46.69075000
 10.00   41.70209000
 10.50   47.40371000
 11.00   47.64686000
 11.50   50.45955000
 12.00   52.14305000
 12.50   47.86941000
 13.00   47.24299000
 13.50   49.80429000
 14.00   44.86714000
 14.50   47.80759000
 15.00   49.26648000
 15.50   48.81933000
 16.00   45.81707000
 16.50   49.46224000
 17.00   48.88733000
 17.50   48.70806000
 18.00   50.03096000
 18.50   49.32624000
 19.00   49.96708000
 19.50   49.70126000
 20.00   53.11770000
 20.50   50.50901000
 21.00   52.26050000
 21.50   50.57289000
 22.00   55.60689000
 22.50   50.17932000
 23.00   49.47048000
 23.50   49.88672000
 24.00   50.74804000
 24.50   50.08659000
 25.00   50.18756000
 25.50   50.66974000
 26.00   51.03033000
 26.50   50.91082000
 27.00   51.31676000
 27.50   51.29821000
 28.00   51.36415000
 28.50   51.21167000
 29.00   51.76803000
 29.50   51.79687000
 30.00   51.31676000
 30.50   51.67530000
 31.00   51.24258000
 31.50   52.38208000
 32.00   52.16778000
 32.50   52.17190000
 33.00   52.33468000
 33.50   52.38826000
 34.00   52.81068000
 34.50   52.37796000
 35.00   53.21043000
 35.50   53.10122000
 36.00   53.11771000
 36.50   53.27431000
 37.00   53.39794000
 37.50   53.40413000
 38.00   53.79769000
 38.50   53.64727000
 39.00   53.92339000
 39.50   53.44122000
 40.00   54.03672000
 40.50   54.23042000
 41.00   54.59308000
 41.50   54.89599000
 42.00   54.34375000
 42.50   54.95574000
 43.00   54.86508000
 43.50   55.07114000
 44.00   55.11235000
 44.50   55.26483000
 45.00   55.43174000
 45.50   55.67283000
 46.00   54.25103000
 46.50   56.12821000
 47.00   55.87064000
 47.50   54.44059000
 48.00   55.95512000
 48.50   56.51148000
 49.00   56.40640000
 49.50   55.83561000
 50.00   57.71898000
 50.50   57.45317000
 51.00   56.64130000
 51.50   57.79522000
 52.00   60.42246000
 52.50   77.16675000
 53.00  1709.52300000
 53.50  6644.31100000
 54.00  13532.74000000
 54.50  21846.36000000
 55.00  31285.23000000
 55.50  41544.22000000
 56.00  52602.13000000
 56.50  64570.99000000
 57.00  77372.20000000
 57.50  91237.87000000
 58.00  98999999999999988926107162687274015908859740160.00000000
 58.00  98999999999999988926107162687274015908859740160.00000000
